File: data/PXRD/PXRD_KE-120top_Cu-Ka1_film-3mm_5s-deg.xyd
    1.500    8.0569
    1.635    7.5619
    1.770    6.9616
    1.905    6.4455
    2.040    6.1506
    2.175    6.1611
    2.310    5.8768
    2.445    5.5292
    2.580    5.5082
    2.715    5.6556
    2.850    5.0974
    2.985    5.4871
    3.120    5.4344
    3.255    5.3502
    3.390    5.2027
    3.525    5.3397
    3.660    5.4976
    3.795    6.2665
    3.930    6.1611
    4.065    5.5082
    4.200    5.4555
    4.335    5.4555
    4.470    5.5503
    4.605    5.6135
    4.740    5.5398
    4.875    5.7504
    5.010    5.7083
    5.145    6.4244
    5.280    6.9826
    5.415    7.2143
    5.550    7.5513
    5.685    7.2565
    5.820    6.4771
    5.955    5.7609
    6.090    5.5292
    6.225    5.5398
    6.360    5.5398
    6.495    5.3712
    6.630    4.9816
    6.765    5.0237
    6.900    4.4760
    7.035    4.5076
    7.170    4.4655
    7.305    4.1706
    7.440    4.1390
    7.575    3.8968
    7.710    3.8441
    7.845    3.8652
    7.980    3.6335
    8.115    3.7809
    8.250    3.8020
    8.385    3.6862
    8.520    3.6546
    8.655    3.5176
    8.790    3.3281
    8.925    3.5071
    9.060    3.3491
    9.195    3.6440
    9.330    3.2859
    9.465    3.7809
    9.600    3.6230
    9.735    3.6862
    9.870    3.4544
   10.005    3.5387
   10.140    3.5387
   10.275    3.7809
   10.410    3.6651
   10.545    3.4229
   10.680    3.8020
   10.815    3.6124
   10.950    3.9179
   11.085    3.8441
   11.220    3.5282
   11.355    3.5703
   11.490    3.3702
   11.625    3.6862
   11.760    3.6124
   11.895    3.6230
   12.030    3.5703
   12.165    3.5176
   12.300    3.4123
   12.435    3.3491
   12.570    3.2649
   12.705    3.4229
   12.840    3.0542
   12.975    3.4439
   13.110    3.2122
   13.245    3.3491
   13.380    3.0437
   13.515    3.1174
   13.650    3.3175
   13.785    3.2227
   13.920    3.2017
   14.055    3.3386
   14.190    3.6124
   14.325    3.6546
   14.460    3.5176
   14.595    3.8231
   14.730    3.5071
   14.865    3.7493
   15.000    3.3175
   15.135    3.3597
   15.270    3.4439
   15.405    3.1596
   15.540    3.1174
   15.675    3.1174
   15.810    3.3491
   15.945    3.2649
   16.080    3.0858
   16.215    3.3386
   16.350    3.6440
   16.485    3.0648
   16.620    3.3175
   16.755    3.2859
   16.890    2.7909
   17.025    3.3070
   17.160    3.1490
   17.295    3.3702
   17.430    3.4544
   17.565    3.1490
   17.700    3.3913
   17.835    3.4439
   17.970    3.1280
   18.105    3.2017
   18.240    3.2438
   18.375    3.0332
   18.510    3.2859
   18.645    3.1385
   18.780    3.1912
   18.915    3.2438
   19.050    3.1490
   19.185    3.3807
   19.320    3.1385
   19.455    3.1490
   19.590    3.0016
   19.725    3.0753
   19.860    3.0121
   19.995    2.9910
   20.130    3.2859
   20.265    3.2017
   20.400    2.9910
   20.535    3.0332
   20.670    2.7804
   20.805    2.9805
   20.940    2.8857
   21.075    2.9279
   21.210    2.9489
   21.345    2.7383
   21.480    3.2122
   21.615    3.0753
   21.750    2.7909
   21.885    3.0542
   22.020    2.6751
   22.155    2.7383
   22.290    2.6435
   22.425    2.6014
   22.560    2.9384
   22.695    2.5171
   22.830    2.7593
   22.965    2.6540
   23.100    2.7699
   23.235    2.5803
   23.370    2.6540
   23.505    2.6119
   23.640    2.7699
   23.775    2.5592
   23.910    2.3907
   24.045    2.5276
   24.180    2.4118
   24.315    2.5698
   24.450    2.4645
   24.585    2.5066
   24.720    2.6224
   24.855    2.4539
   24.990    2.3486
   25.125    2.5171
   25.260    2.4118
   25.395    2.3486
   25.530    2.4118
   25.665    2.3697
   25.800    2.2012
   25.935    2.4855
   26.070    2.4539
   26.205    2.2012
   26.340    2.3907
   26.475    2.1590
   26.610    2.2012
   26.745    2.2643
   26.880    2.0116
   27.015    2.0326
   27.150    2.1485
   27.285    2.3591
   27.420    2.0221
   27.555    2.1169
   27.690    2.1801
   27.825    2.0642
   27.960    1.9168
   28.095    2.1590
   28.230    2.0221
   28.365    2.2117
   28.500    2.2328
   28.635    2.2854
   28.770    2.1906
   28.905    2.1064
   29.040    2.0221
   29.175    1.9273
   29.310    1.9273
   29.445    1.8747
   29.580    1.6430
   29.715    1.8852
   29.850    1.8115
   29.985    1.7062
   30.120    1.8115
   30.255    1.8220
   30.390    1.9484
   30.525    1.9484
   30.660    1.6746
   30.795    1.8747
   30.930    1.6535
   31.065    1.8325
   31.200    1.5587
   31.335    1.6114
   31.470    1.5166
   31.605    1.5903
   31.740    1.6008
   31.875    1.4113
   32.010    1.6114
   32.145    1.4955
   32.280    1.3586
   32.415    1.6114
   32.550    1.3270
   32.685    1.5798
   32.820    1.4113
   32.955    1.4218
   33.090    1.5271
   33.225    1.4218
   33.360    1.6640
   33.495    1.5587
   33.630    1.4323
   33.765    1.3586
   33.900    1.5377
   34.035    1.4850
   34.170    1.4639
   34.305    1.4639
   34.440    1.3165
   34.575    1.5482
   34.710    1.4218
   34.845    1.3902
   34.980    1.5061
   35.115    1.3586
   35.250    1.3481
   35.385    1.4323
   35.520    1.3902
   35.655    1.3270
   35.790    1.3060
   35.925    1.4113
   36.060    1.1796
   36.195    1.3165
   36.330    1.1690
   36.465    1.5166
   36.600    1.3691
   36.735    1.2533
   36.870    1.3586
   37.005    1.0742
   37.140    1.3902
   37.275    1.4218
   37.410    1.4007
   37.545    1.3060
   37.680    1.4218
   37.815    1.2849
   37.950    1.3375
   38.085    1.2006
   38.220    1.4007
   38.355    1.2533
   38.490    1.3060
   38.625    1.4639
   38.760    1.3586
   38.895    1.4113
   39.030    1.3375
   39.165    1.2954
   39.300    1.3691
   39.435    1.3797
   39.570    1.1901
   39.705    1.2744
   39.840    1.1480
   39.975    1.0848
   39.990    1.1585