File: data/PXRD/PXRD_KE-119top_Cu-Ka1_film-3mm_5s-deg.xyd
    1.500    9.9631
    1.635    8.9205
    1.770    8.6045
    1.905    8.2254
    2.040    7.3828
    2.175    6.7509
    2.310    6.8773
    2.445    6.5719
    2.580    6.2770
    2.715    6.1506
    2.850    5.9505
    2.985    5.8873
    3.120    6.0769
    3.255    6.4244
    3.390    6.4876
    3.525    7.9305
    3.660    8.9205
    3.795   13.4071
    3.930   12.4171
    4.065    6.0242
    4.200    5.9821
    4.335    5.9926
    4.470    5.7925
    4.605    5.6029
    4.740    5.8136
    4.875    6.2243
    5.010    6.3823
    5.145    6.8773
    5.280    7.6672
    5.415   10.7004
    5.550    8.9731
    5.685    7.5303
    5.820    6.9510
    5.955    6.7299
    6.090    6.0874
    6.225    5.7188
    6.360    5.8347
    6.495    5.6240
    6.630    6.0137
    6.765    7.1406
    6.900    5.0342
    7.035    4.7288
    7.170    4.8341
    7.305    4.6551
    7.440    4.3918
    7.575    4.1601
    7.710    4.8657
    7.845    4.8236
    7.980    4.3181
    8.115    4.0232
    8.250    4.3391
    8.385    4.0548
    8.520    4.0969
    8.655    3.7809
    8.790    3.8652
    8.925    3.8547
    9.060    3.7809
    9.195    3.7283
    9.330    3.9389
    9.465    4.9184
    9.600    4.9184
    9.735    4.0442
    9.870    3.6124
   10.005    4.0969
   10.140    4.1496
   10.275    4.3497
   10.410    3.9810
   10.545    4.0758
   10.680    4.1285
   10.815    4.1496
   10.950    4.3602
   11.085    4.4339
   11.220    4.1390
   11.355    4.2022
   11.490    3.8863
   11.625    4.4023
   11.760    4.4655
   11.895    3.8020
   12.030    3.8757
   12.165    3.7704
   12.300    3.9810
   12.435    3.8757
   12.570    3.9284
   12.705    3.8757
   12.840    3.9705
   12.975    3.9389
   13.110    3.5808
   13.245    3.8441
   13.380    3.4755
   13.515    3.8757
   13.650    3.8863
   13.785    3.4755
   13.920    3.7915
   14.055    4.5603
   14.190    4.2654
   14.325    4.1074
   14.460    3.9600
   14.595    4.1074
   14.730    4.0758
   14.865    3.9179
   15.000    3.9284
   15.135    3.8968
   15.270    3.4544
   15.405    3.3491
   15.540    3.8020
   15.675    3.3281
   15.810    3.5914
   15.945    3.8441
   16.080    3.8125
   16.215    3.6651
   16.350    3.5808
   16.485    3.6230
   16.620    3.4860
   16.755    3.6230
   16.890    3.4018
   17.025    3.7493
   17.160    3.6124
   17.295    3.6546
   17.430    3.4860
   17.565    3.7493
   17.700    3.4544
   17.835    3.5387
   17.970    3.7599
   18.105    3.5071
   18.240    3.7072
   18.375    3.2017
   18.510    3.6230
   18.645    3.4334
   18.780    3.5703
   18.915    3.5703
   19.050    3.4229
   19.185    3.4544
   19.320    3.6019
   19.455    3.0753
   19.590    3.2754
   19.725    3.1912
   19.860    3.2859
   19.995    3.3913
   20.130    3.1069
   20.265    3.1596
   20.400    3.3491
   20.535    3.3491
   20.670    3.1596
   20.805    3.0858
   20.940    3.2965
   21.075    3.2438
   21.210    3.1490
   21.345    3.0858
   21.480    3.4966
   21.615    3.2017
   21.750    3.2543
   21.885    3.0226
   22.020    3.1385
   22.155    3.4123
   22.290    3.2754
   22.425    3.1069
   22.560    3.3175
   22.695    3.1069
   22.830    3.3597
   22.965    2.9489
   23.100    3.0016
   23.235    3.3702
   23.370    2.8331
   23.505    2.8541
   23.640    2.6119
   23.775    3.0964
   23.910    2.7909
   24.045    2.8541
   24.180    2.7488
   24.315    2.6435
   24.450    2.6540
   24.585    2.7172
   24.720    2.9595
   24.855    2.6224
   24.990    2.6014
   25.125    2.7067
   25.260    2.7699
   25.395    2.5592
   25.530    2.8647
   25.665    2.8752
   25.800    2.7909
   25.935    2.7804
   26.070    2.4961
   26.205    2.6540
   26.340    2.5276
   26.475    2.6751
   26.610    2.7172
   26.745    2.4329
   26.880    2.9489
   27.015    2.6435
   27.150    2.2328
   27.285    2.5908
   27.420    2.6014
   27.555    2.4645
   27.690    2.6224
   27.825    2.0748
   27.960    2.3381
   28.095    2.2749
   28.230    2.3381
   28.365    2.4118
   28.500    2.4434
   28.635    2.2117
   28.770    2.4434
   28.905    2.3381
   29.040    2.1274
   29.175    2.2117
   29.310    2.2328
   29.445    2.3802
   29.580    1.9484
   29.715    2.2117
   29.850    2.1801
   29.985    2.2433
   30.120    2.0642
   30.255    2.0432
   30.390    2.0116
   30.525    2.1380
   30.660    2.0642
   30.795    1.9484
   30.930    2.1169
   31.065    2.0537
   31.200    1.9695
   31.335    2.0642
   31.470    1.9695
   31.605    2.1064
   31.740    1.8431
   31.875    1.8115
   32.010    1.7062
   32.145    1.8431
   32.280    1.7272
   32.415    1.9589
   32.550    1.9905
   32.685    1.7588
   32.820    1.8009
   32.955    1.8115
   33.090    1.6640
   33.225    1.7272
   33.360    1.6746
   33.495    1.7378
   33.630    1.7483
   33.765    1.9168
   33.900    1.6008
   34.035    1.6956
   34.170    1.6746
   34.305    1.7167
   34.440    1.8115
   34.575    1.7799
   34.710    1.6324
   34.845    1.7799
   34.980    1.7378
   35.115    1.5587
   35.250    1.6851
   35.385    1.6430
   35.520    1.8220
   35.655    1.7904
   35.790    1.6956
   35.925    1.6956
   36.060    1.6851
   36.195    1.8957
   36.330    1.8747
   36.465    1.6430
   36.600    1.8009
   36.735    1.7062
   36.870    1.5903
   37.005    1.6851
   37.140    1.6535
   37.275    1.7483
   37.410    1.5482
   37.545    1.7062
   37.680    1.5903
   37.815    1.5166
   37.950    1.5903
   38.085    1.7272
   38.220    1.5271
   38.355    1.5061
   38.490    1.4218
   38.625    1.4850
   38.760    1.4955
   38.895    1.7272
   39.030    1.6746
   39.165    1.5061
   39.300    1.5061
   39.435    1.4007
   39.570    1.6430
   39.705    1.4534
   39.840    1.6851
   39.975    1.6430
   39.990    1.5377